File: SampleLog.csv
Line #, Timestamp, Battery ID, Current (A), Voltage (V), State Of Charge (%), Total Capacity, Remaining Capacity (AH),Cell Voltage 1 (mV),Cell Voltage 2 (mV),Cell Voltage 3 (mV),Cell Voltage 4 (mV),Cell Voltage 5 (mV),Cell Voltage 6 (mV),Cell Voltage 7 (mV),Cell Voltage 8 (mV),Cell Voltage 9 (mV),Cell Voltage 10 (mV),Cell Voltage 11 (mV),Cell Voltage 12 (mV),Cell Voltage 13 (mV),Cell Voltage 14 (mV),Cell Voltage 15 (mV),Cell Voltage 16 (mV),Highest Cell Voltage (mV), Lowest Cell Voltage (mV),Temperature 1 (C),Temperature 2 (C),Temperature 3 (C),Temperature 4 (C),Charging (1) Discharging (2) Status, Charging MOS Status, Discharging MOS Status, Balancing Status, Cell Balancing Status,Alarm 1,Alarm 2,Alarm 3,Alarm 4,Alarm 5,Alarm 6,Alarm 7,Alarm 8,
1, 2023-10-30 13:36:36, 0, 146.10, 53.90, 49.40, 0.00, 138.00, 3363.00, 3367.00, 3370.00, 3374.00, 3376.00, 3367.00, 3371.00, 3367.00, 3386.00, 0.00, 0.00, 0.00, 0.00, 0.00, 0.00, 0.00, 3386.00, 3363.00, 0.00, 0.00, 0.00, 0.00, 1, 1, 1, 1, '0000000010000000', '00000000', '00000000', '00000000', '00000000', '00000000', '00000000', '00000000', '00000000',
3, 2023-10-30 13:36:44, 0, 146.10, 53.90, 49.50, 0.00, 138.00, 3368.00, 3367.00, 3368.00, 3374.00, 3377.00, 3367.00, 3371.00, 3367.00, 3386.00, 3368.00, 3367.00, 3368.00, 0.00, 0.00, 0.00, 0.00, 3386.00, 3363.00, 0.00, 0.00, 0.00, 0.00, 1, 1, 1, 1, '0000000010000000', '00000000', '00000000', '00000000', '00000000', '00000000', '00000000', '00000000', '00000000',
5, 2023-10-30 13:36:51, 0, 146.10, 53.90, 49.60, 0.00, 138.00, 3368.00, 3368.00, 3369.00, 3374.00, 3377.00, 3367.00, 3371.00, 3367.00, 3386.00, 3368.00, 3368.00, 3369.00, 0.00, 0.00, 0.00, 0.00, 3386.00, 3363.00, 0.00, 0.00, 0.00, 0.00, 1, 1, 1, 1, '0000000010000000', '00000000', '00000000', '00000000', '00000000', '00000000', '00000000', '00000000', '00000000',
7, 2023-10-30 13:36:59, 0, 146.10, 53.90, 49.70, 0.00, 139.00, 3365.00, 3367.00, 3370.00, 3374.00, 3377.00, 3367.00, 3371.00, 3367.00, 3386.00, 3368.00, 3367.00, 3368.00, 0.00, 0.00, 0.00, 0.00, 3386.00, 3363.00, 0.00, 0.00, 0.00, 0.00, 1, 1, 1, 1, '0000000010000000', '00000000', '00000000', '00000000', '00000000', '00000000', '00000000', '00000000', '00000000',
9, 2023-10-30 13:37:07, 0, 146.10, 53.90, 49.90, 0.00, 139.00, 3365.00, 3367.00, 3370.00, 3375.00, 3377.00, 3367.00, 3371.00, 3367.00, 3386.00, 3368.00, 3367.00, 3368.00, 0.00, 0.00, 0.00, 0.00, 3386.00, 3361.00, 0.00, 0.00, 0.00, 0.00, 1, 1, 1, 1, '0000000010000000', '00000000', '00000000', '00000000', '00000000', '00000000', '00000000', '00000000', '00000000',
11, 2023-10-30 13:37:15, 0, 146.20, 53.90, 50.00, 0.00, 140.00, 3365.00, 3367.00, 3370.00, 3374.00, 3377.00, 3367.00, 3372.00, 3367.00, 3386.00, 3368.00, 3368.00, 3369.00, 0.00, 0.00, 0.00, 0.00, 3386.00, 3363.00, 0.00, 0.00, 0.00, 0.00, 1, 1, 1, 1, '0000000010000000', '00000000', '00000000', '00000000', '00000000', '00000000', '00000000', '00000000', '00000000',
13, 2023-10-30 13:37:22, 0, 146.10, 53.90, 50.10, 0.00, 140.00, 3368.00, 3368.00, 3369.00, 3374.00, 3377.00, 3367.00, 3372.00, 3367.00, 3386.00, 3368.00, 3368.00, 3369.00, 0.00, 0.00, 0.00, 0.00, 3386.00, 3363.00, 0.00, 0.00, 0.00, 0.00, 1, 1, 1, 1, '0000000010000000', '00000000', '00000000', '00000000', '00000000', '00000000', '00000000', '00000000', '00000000',
15, 2023-10-30 13:37:30, 0, 146.10, 53.90, 50.20, 0.00, 140.00, 3365.00, 3367.00, 3370.00, 3374.00, 3377.00, 3367.00, 3371.00, 3367.00, 3387.00, 3368.00, 3368.00, 3369.00, 0.00, 0.00, 0.00, 0.00, 3386.00, 3363.00, 0.00, 0.00, 0.00, 0.00, 1, 1, 1, 1, '0000000010000000', '00000000', '00000000', '00000000', '00000000', '00000000', '00000000', '00000000', '00000000',
17, 2023-10-30 13:37:38, 0, 146.10, 53.90, 50.30, 0.00, 140.00, 3365.00, 3367.00, 3370.00, 3374.00, 3377.00, 3367.00, 3371.00, 3367.00, 3386.00, 3368.00, 3368.00, 3369.00, 0.00, 0.00, 0.00, 0.00, 3386.00, 3363.00, 0.00, 0.00, 0.00, 0.00, 1, 1, 1, 1, '0000000010000000', '00000000', '00000000', '00000000', '00000000', '00000000', '00000000', '00000000', '00000000',
19, 2023-10-30 13:37:46, 0, 146.20, 53.90, 50.40, 0.00, 141.00, 3368.00, 3368.00, 3369.00, 3374.00, 3377.00, 3367.00, 3372.00, 3367.00, 3387.00, 3368.00, 3368.00, 3369.00, 0.00, 0.00, 0.00, 0.00, 3386.00, 3363.00, 0.00, 0.00, 0.00, 0.00, 1, 1, 1, 1, '0000000010000000', '00000000', '00000000', '00000000', '00000000', '00000000', '00000000', '00000000', '00000000',
21, 2023-10-30 13:37:53, 0, 146.10, 53.90, 50.50, 0.00, 141.00, 3365.00, 3367.00, 3371.00, 3375.00, 3378.00, 3368.00, 3372.00, 3367.00, 3387.00, 3368.00, 3368.00, 3369.00, 0.00, 0.00, 0.00, 0.00, 3387.00, 3363.00, 0.00, 0.00, 0.00, 0.00, 1, 1, 1, 1, '0000000010000000', '00000000', '00000000', '00000000', '00000000', '00000000', '00000000', '00000000', '00000000',
23, 2023-10-30 13:38:01, 0, 146.10, 53.90, 50.60, 0.00, 141.00, 3365.00, 3367.00, 3371.00, 3375.00, 3377.00, 3368.00, 3371.00, 3367.00, 3387.00, 3368.00, 3368.00, 3369.00, 0.00, 0.00, 0.00, 0.00, 3387.00, 3363.00, 0.00, 0.00, 0.00, 0.00, 1, 1, 1, 1, '0000000010000000', '00000000', '00000000', '00000000', '00000000', '00000000', '00000000', '00000000', '00000000',
25, 2023-10-30 13:38:09, 0, 146.10, 53.90, 50.70, 0.00, 141.00, 3369.00, 3368.00, 3369.00, 3375.00, 3377.00, 3368.00, 3372.00, 3367.00, 3387.00, 3369.00, 3368.00, 3369.00, 0.00, 0.00, 0.00, 0.00, 3387.00, 3363.00, 0.00, 0.00, 0.00, 0.00, 1, 1, 1, 1, '0000000010000000', '00000000', '00000000', '00000000', '00000000', '00000000', '00000000', '00000000', '00000000',
27, 2023-10-30 13:38:17, 0, 146.10, 53.90, 50.80, 0.00, 142.00, 3369.00, 3368.00, 3369.00, 3375.00, 3378.00, 3368.00, 3372.00, 3368.00, 3387.00, 3369.00, 3368.00, 3369.00, 0.00, 0.00, 0.00, 0.00, 3387.00, 3363.00, 0.00, 0.00, 0.00, 0.00, 1, 1, 1, 1, '0000000010000000', '00000000', '00000000', '00000000', '00000000', '00000000', '00000000', '00000000', '00000000',
29, 2023-10-30 13:38:24, 0, 146.10, 53.90, 51.00, 0.00, 142.00, 3365.00, 3368.00, 3371.00, 3375.00, 3377.00, 3368.00, 3372.00, 3368.00, 3387.00, 3369.00, 3368.00, 3369.00, 0.00, 0.00, 0.00, 0.00, 3387.00, 3363.00, 0.00, 0.00, 0.00, 0.00, 1, 1, 1, 1, '0000000010000000', '00000000', '00000000', '00000000', '00000000', '00000000', '00000000', '00000000', '00000000',
31, 2023-10-30 13:38:32, 0, 146.10, 53.90, 51.10, 0.00, 143.00, 3365.00, 3367.00, 3371.00, 3375.00, 3378.00, 3368.00, 3372.00, 3368.00, 3387.00, 3369.00, 3368.00, 3369.00, 0.00, 0.00, 0.00, 0.00, 3387.00, 3364.00, 0.00, 0.00, 0.00, 0.00, 1, 1, 1, 1, '0000000010000000', '00000000', '00000000', '00000000', '00000000', '00000000', '00000000', '00000000', '00000000',
33, 2023-10-30 13:38:40, 0, 146.10, 53.90, 51.20, 0.00, 143.00, 3365.00, 3367.00, 3371.00, 3375.00, 3378.00, 3368.00, 3372.00, 3368.00, 3387.00, 3369.00, 3368.00, 3369.00, 0.00, 0.00, 0.00, 0.00, 3387.00, 3363.00, 0.00, 0.00, 0.00, 0.00, 1, 1, 1, 1, '0000000010000000', '00000000', '00000000', '00000000', '00000000', '00000000', '00000000', '00000000', '00000000',
35, 2023-10-30 13:38:48, 0, 146.10, 53.90, 51.30, 0.00, 143.00, 3369.00, 3369.00, 3370.00, 3375.00, 3378.00, 3368.00, 3372.00, 3368.00, 3387.00, 3369.00, 3369.00, 3370.00, 0.00, 0.00, 0.00, 0.00, 3387.00, 3364.00, 0.00, 0.00, 0.00, 0.00, 1, 1, 1, 1, '0000000010000000', '00000000', '00000000', '00000000', '00000000', '00000000', '00000000', '00000000', '00000000',
37, 2023-10-30 13:38:55, 0, 146.10, 53.90, 51.40, 0.00, 143.00, 3369.00, 3368.00, 3370.00, 3375.00, 3378.00, 3368.00, 3372.00, 3368.00, 3387.00, 3369.00, 3368.00, 3370.00, 0.00, 0.00, 0.00, 0.00, 3387.00, 3364.00, 0.00, 0.00, 0.00, 0.00, 1, 1, 1, 1, '0000000010000000', '00000000', '00000000', '00000000', '00000000', '00000000', '00000000', '00000000', '00000000',
39, 2023-10-30 13:39:03, 0, 146.10, 53.90, 51.50, 0.00, 144.00, 3366.00, 3368.00, 3372.00, 3375.00, 3378.00, 3368.00, 3372.00, 3368.00, 3387.00, 3369.00, 3368.00, 3370.00, 0.00, 0.00, 0.00, 0.00, 3387.00, 3364.00, 0.00, 0.00, 0.00, 0.00, 1, 1, 1, 1, '0000000010000000', '00000000', '00000000', '00000000', '00000000', '00000000', '00000000', '00000000', '00000000',
41, 2023-10-30 13:39:11, 0, 146.10, 53.90, 51.60, 0.00, 144.00, 3366.00, 3368.00, 3371.00, 3375.00, 3378.00, 3368.00, 3372.00, 3368.00, 3387.00, 3369.00, 3369.00, 3369.00, 0.00, 0.00, 0.00, 0.00, 3387.00, 3364.00, 0.00, 0.00, 0.00, 0.00, 1, 1, 1, 1, '0000000010000000', '00000000', '00000000', '00000000', '00000000', '00000000', '00000000', '00000000', '00000000',
43, 2023-10-30 13:39:19, 0, 146.10, 53.90, 51.70, 0.00, 144.00, 3369.00, 3369.00, 3370.00, 3375.00, 3378.00, 3368.00, 3372.00, 3368.00, 3387.00, 3369.00, 3369.00, 3370.00, 0.00, 0.00, 0.00, 0.00, 3387.00, 3364.00, 0.00, 0.00, 0.00, 0.00, 1, 1, 1, 1, '0000000010000000', '00000000', '00000000', '00000000', '00000000', '00000000', '00000000', '00000000', '00000000',
45, 2023-10-30 13:39:26, 0, 146.10, 53.90, 51.80, 0.00, 145.00, 3366.00, 3368.00, 3371.00, 3375.00, 3378.00, 3368.00, 3372.00, 3368.00, 3387.00, 3369.00, 3369.00, 3370.00, 0.00, 0.00, 0.00, 0.00, 3387.00, 3364.00, 0.00, 0.00, 0.00, 0.00, 1, 1, 1, 1, '0000000010000000', '00000000', '00000000', '00000000', '00000000', '00000000', '00000000', '00000000', '00000000',
47, 2023-10-30 13:39:34, 0, 146.10, 53.90, 52.00, 0.00, 145.00, 3369.00, 3369.00, 3370.00, 3375.00, 3378.00, 3368.00, 3372.00, 3368.00, 3387.00, 3369.00, 3369.00, 3370.00, 0.00, 0.00, 0.00, 0.00, 3387.00, 3364.00, 0.00, 0.00, 0.00, 0.00, 1, 1, 1, 1, '0000000010000000', '00000000', '00000000', '00000000', '00000000', '00000000', '00000000', '00000000', '00000000',
49, 2023-10-30 13:39:42, 0, 146.10, 53.90, 52.10, 0.00, 145.00, 3366.00, 3368.00, 3372.00, 3375.00, 3378.00, 3368.00, 3372.00, 3368.00, 3387.00, 3369.00, 3368.00, 3370.00, 0.00, 0.00, 0.00, 0.00, 3387.00, 3364.00, 0.00, 0.00, 0.00, 0.00, 1, 1, 1, 1, '0000000010000000', '00000000', '00000000', '00000000', '00000000', '00000000', '00000000', '00000000', '00000000',
51, 2023-10-30 13:39:50, 0, 146.10, 53.90, 52.20, 0.00, 146.00, 3366.00, 3368.00, 3372.00, 3375.00, 3378.00, 3369.00, 3373.00, 3368.00, 3387.00, 3369.00, 3369.00, 3370.00, 0.00, 0.00, 0.00, 0.00, 3387.00, 3364.00, 0.00, 0.00, 0.00, 0.00, 1, 1, 1, 1, '0000000010000000', '00000000', '00000000', '00000000', '00000000', '00000000', '00000000', '00000000', '00000000',
53, 2023-10-30 13:39:57, 0, 146.10, 53.90, 52.30, 0.00, 146.00, 3369.00, 3369.00, 3370.00, 3375.00, 3378.00, 3368.00, 3373.00, 3368.00, 3387.00, 3369.00, 3369.00, 3370.00, 0.00, 0.00, 0.00, 0.00, 3387.00, 3364.00, 0.00, 0.00, 0.00, 0.00, 1, 1, 1, 1, '0000000010000000', '00000000', '00000000', '00000000', '00000000', '00000000', '00000000', '00000000', '00000000',
54, 2023-10-30 13:40:01, 0, 146.10, 53.90, 52.30, 0.00, 146.00, 3369.00, 3368.00, 3370.00, 3376.00, 3378.00, 3369.00, 3373.00, 3369.00, 3387.00, 3369.00, 3368.00, 3370.00, 0.00, 0.00, 0.00, 0.00, 3387.00, 3364.00, 0.00, 0.00, 0.00, 0.00, 1, 1, 1, 1, '0000000010000000', '00000000', '00000000', '00000