File: Orion/windows/EPData231113_173345.csv
Line #, Timestamp, Battery ID, Current (A), Voltage (V), State Of Charge (%), Total Capacity, Remaining Capacity (AH),Cell Voltage 1 (mV),Cell Voltage 2 (mV),Cell Voltage 3 (mV),Cell Voltage 4 (mV),Cell Voltage 5 (mV),Cell Voltage 6 (mV),Cell Voltage 7 (mV),Cell Voltage 8 (mV),Cell Voltage 9 (mV),Cell Voltage 10 (mV),Cell Voltage 11 (mV),Cell Voltage 12 (mV),Cell Voltage 13 (mV),Cell Voltage 14 (mV),Cell Voltage 15 (mV),Cell Voltage 16 (mV),Highest Cell Voltage (mV), Lowest Cell Voltage (mV),Temperature 1 (C),Temperature 2 (C),Temperature 3 (C),Temperature 4 (C),Charging (1) Discharging (2) Status, Charging MOS Status, Discharging MOS Status, Balancing Status, Cell Balancing Status,Alarm 1,Alarm 2,Alarm 3,Alarm 4,Alarm 5,Alarm 6,Alarm 7,Alarm 8,
1, 2023-11-13 17:33:45, 0, 0.00, 12.80, 50.00, 0.00, 153.60, 0.00, 0.00, 0.00, 0.00, 0.00, 0.00, 0.00, 0.00, 0.00, 0.00, 0.00, 0.00, 0.00, 0.00, 0.00, 0.00, 3202.30, 3201.10, 0.00, 0.00, 0.00, 0.00, 1, 0, 0, 0, '0000000000000000', '', '', '', '', '', '', '', '',
217, 2023-11-13 17:58:34, 0, 420.00, 12.80, 50.00, 0.00, 153.60, 0.00, 0.00, 0.00, 0.00, 0.00, 0.00, 0.00, 0.00, 0.00, 0.00, 0.00, 0.00, 0.00, 0.00, 0.00, 0.00, 3201.90, 3200.90, 0.00, 0.00, 0.00, 0.00, 1, 0, 0, 0, '0000000000000000', '', '', '', '', '', '', '', '',
433, 2023-11-13 18:23:20, 0, 420.00, 12.80, 50.00, 0.00, 153.60, 0.00, 0.00, 0.00, 0.00, 0.00, 0.00, 0.00, 0.00, 0.00, 0.00, 0.00, 0.00, 0.00, 0.00, 0.00, 0.00, 3201.70, 3200.50, 0.00, 0.00, 0.00, 0.00, 1, 0, 0, 0, '0000000000000000', '', '', '', '', '', '', '', '',
649, 2023-11-13 18:48:07, 0, 420.00, 12.80, 50.00, 0.00, 153.60, 0.00, 0.00, 0.00, 0.00, 0.00, 0.00, 0.00, 0.00, 0.00, 0.00, 0.00, 0.00, 0.00, 0.00, 0.00, 0.00, 3201.40, 3200.50, 0.00, 0.00, 0.00, 0.00, 1, 0, 0, 0, '0000000000000000', '', '', '', '', '', '', '', '',
865, 2023-11-13 19:12:53, 0, 420.00, 12.80, 50.00, 0.00, 153.60, 0.00, 0.00, 0.00, 0.00, 0.00, 0.00, 0.00, 0.00, 0.00, 0.00, 0.00, 0.00, 0.00, 0.00, 0.00, 0.00, 3201.00, 3200.20, 0.00, 0.00, 0.00, 0.00, 1, 0, 0, 0, '0000000000000000', '', '', '', '', '', '', '', '',
1081, 2023-11-13 19:37:39, 0, 420.00, 12.80, 50.00, 0.00, 153.60, 0.00, 0.00, 0.00, 0.00, 0.00, 0.00, 0.00, 0.00, 0.00, 0.00, 0.00, 0.00, 0.00, 0.00, 0.00, 0.00, 3200.90, 3199.90, 0.00, 0.00, 0.00, 0.00, 1, 0, 0, 0, '0000000000000000', '', '', '', '', '', '', '', '',
1297, 2023-11-13 20:02:25, 0, 420.00, 12.80, 50.00, 0.00, 153.60, 0.00, 0.00, 0.00, 0.00, 0.00, 0.00, 0.00, 0.00, 0.00, 0.00, 0.00, 0.00, 0.00, 0.00, 0.00, 0.00, 3200.70, 3199.60, 0.00, 0.00, 0.00, 0.00, 1, 0, 0, 0, '0000000000000000', '', '', '', '', '', '', '', '',
1513, 2023-11-13 20:27:11, 0, 420.00, 12.70, 50.00, 0.00, 152.40, 0.00, 0.00, 0.00, 0.00, 0.00, 0.00, 0.00, 0.00, 0.00, 0.00, 0.00, 0.00, 0.00, 0.00, 0.00, 0.00, 3200.30, 3199.30, 0.00, 0.00, 0.00, 0.00, 1, 0, 0, 0, '0000000000000000', '', '', '', '', '', '', '', '',
1729, 2023-11-13 20:51:57, 0, 420.00, 12.70, 50.00, 0.00, 152.40, 0.00, 0.00, 0.00, 0.00, 0.00, 0.00, 0.00, 0.00, 0.00, 0.00, 0.00, 0.00, 0.00, 0.00, 0.00, 0.00, 3200.20, 3199.20, 0.00, 0.00, 0.00, 0.00, 1, 0, 0, 0, '0000000000000000', '', '', '', '', '', '', '', '',
1945, 2023-11-13 21:16:43, 0, 420.00, 12.70, 50.00, 0.00, 152.40, 0.00, 0.00, 0.00, 0.00, 0.00, 0.00, 0.00, 0.00, 0.00, 0.00, 0.00, 0.00, 0.00, 0.00, 0.00, 0.00, 3199.90, 3198.90, 0.00, 0.00, 0.00, 0.00, 1, 0, 0, 0, '0000000000000000', '', '', '', '', '', '', '', '',
2161, 2023-11-13 21:41:29, 0, 420.00, 12.70, 50.00, 0.00, 152.40, 0.00, 0.00, 0.00, 0.00, 0.00, 0.00, 0.00, 0.00, 0.00, 0.00, 0.00, 0.00, 0.00, 0.00, 0.00, 0.00, 3199.70, 3198.70, 0.00, 0.00, 0.00, 0.00, 1, 0, 0, 0, '0000000000000000', '', '', '', '', '', '', '', '',
2377, 2023-11-13 22:06:15, 0, 420.00, 12.70, 50.00, 0.00, 152.40, 0.00, 0.00, 0.00, 0.00, 0.00, 0.00, 0.00, 0.00, 0.00, 0.00, 0.00, 0.00, 0.00, 0.00, 0.00, 0.00, 3199.60, 3198.70, 0.00, 0.00, 0.00, 0.00, 1, 0, 0, 0, '0000000000000000', '', '', '', '', '', '', '', '',
2593, 2023-11-13 22:31:01, 0, 420.00, 12.70, 50.00, 0.00, 152.40, 0.00, 0.00, 0.00, 0.00, 0.00, 0.00, 0.00, 0.00, 0.00, 0.00, 0.00, 0.00, 0.00, 0.00, 0.00, 0.00, 3199.30, 3198.50, 0.00, 0.00, 0.00, 0.00, 1, 0, 0, 0, '0000000000000000', '', '', '', '', '', '', '', '',
2809, 2023-11-13 22:55:47, 0, 420.00, 12.70, 50.00, 0.00, 152.40, 0.00, 0.00, 0.00, 0.00, 0.00, 0.00, 0.00, 0.00, 0.00, 0.00, 0.00, 0.00, 0.00, 0.00, 0.00, 0.00, 3199.10, 3198.30, 0.00, 0.00, 0.00, 0.00, 1, 0, 0, 0, '0000000000000000', '', '', '', '', '', '', '', '',
3025, 2023-11-13 23:20:34, 0, 420.00, 12.70, 50.00, 0.00, 152.40, 0.00, 0.00, 0.00, 0.00, 0.00, 0.00, 0.00, 0.00, 0.00, 0.00, 0.00, 0.00, 0.00, 0.00, 0.00, 0.00, 3198.90, 3198.10, 0.00, 0.00, 0.00, 0.00, 1, 0, 0, 0, '0000000000000000', '', '', '', '', '', '', '', '',
3241, 2023-11-13 23:45:20, 0, 420.00, 12.70, 50.00, 0.00, 152.40, 0.00, 0.00, 0.00, 0.00, 0.00, 0.00, 0.00, 0.00, 0.00, 0.00, 0.00, 0.00, 0.00, 0.00, 0.00, 0.00, 3198.80, 3197.90, 0.00, 0.00, 0.00, 0.00, 1, 0, 0, 0, '0000000000000000', '', '', '', '', '', '', '', '',
3457, 2023-11-14 00:10:06, 0, 420.00, 12.70, 50.00, 0.00, 152.40, 0.00, 0.00, 0.00, 0.00, 0.00, 0.00, 0.00, 0.00, 0.00, 0.00, 0.00, 0.00, 0.00, 0.00, 0.00, 0.00, 3198.70, 3197.80, 0.00, 0.00, 0.00, 0.00, 1, 0, 0, 0, '0000000000000000', '', '', '', '', '', '', '', '',
3673, 2023-11-14 00:34:52, 0, 420.00, 12.70, 50.00, 0.00, 152.40, 0.00, 0.00, 0.00, 0.00, 0.00, 0.00, 0.00, 0.00, 0.00, 0.00, 0.00, 0.00, 0.00, 0.00, 0.00, 0.00, 3198.50, 3197.60, 0.00, 0.00, 0.00, 0.00, 1, 0, 0, 0, '0000000000000000', '', '', '', '', '', '', '', '',
3889, 2023-11-14 00:59:38, 0, 420.00, 12.70, 50.00, 0.00, 152.40, 0.00, 0.00, 0.00, 0.00, 0.00, 0.00, 0.00, 0.00, 0.00, 0.00, 0.00, 0.00, 0.00, 0.00, 0.00, 0.00, 3198.30, 3197.50, 0.00, 0.00, 0.00, 0.00, 1, 0, 0, 0, '0000000000000000', '', '', '', '', '', '', '', '',
4105, 2023-11-14 01:24:24, 0, 420.00, 12.70, 50.00, 0.00, 152.40, 0.00, 0.00, 0.00, 0.00, 0.00, 0.00, 0.00, 0.00, 0.00, 0.00, 0.00, 0.00, 0.00, 0.00, 0.00, 0.00, 3198.30, 3197.30, 0.00, 0.00, 0.00, 0.00, 1, 0, 0, 0, '0000000000000000', '', '', '', '', '', '', '', '',
4321, 2023-11-14 01:49:10, 0, 420.00, 12.70, 50.00, 0.00, 152.40, 0.00, 0.00, 0.00, 0.00, 0.00, 0.00, 0.00, 0.00, 0.00, 0.00, 0.00, 0.00, 0.00, 0.00, 0.00, 0.00, 3198.00, 3197.20, 0.00, 0.00, 0.00, 0.00, 1, 0, 0, 0, '0000000000000000', '', '', '', '', '', '', '', '',
4537, 2023-11-14 02:13:56, 0, 420.00, 12.70, 50.00, 0.00, 152.40, 0.00, 0.00, 0.00, 0.00, 0.00, 0.00, 0.00, 0.00, 0.00, 0.00, 0.00, 0.00, 0.00, 0.00, 0.00, 0.00, 3197.90, 3197.00, 0.00, 0.00, 0.00, 0.00, 1, 0, 0, 0, '0000000000000000', '', '', '', '', '', '', '', '',
4753, 2023-11-14 02:38:42, 0, 420.00, 12.70, 50.00, 0.00, 152.40, 0.00, 0.00, 0.00, 0.00, 0.00, 0.00, 0.00, 0.00, 0.00, 0.00, 0.00, 0.00, 0.00, 0.00, 0.00, 0.00, 3197.80, 3197.00, 0.00, 0.00, 0.00, 0.00, 1, 0, 0, 0, '0000000000000000', '', '', '', '', '', '', '', '',
4969, 2023-11-14 03:03:28, 0, 420.00, 12.70, 50.00, 0.00, 152.40, 0.00, 0.00, 0.00, 0.00, 0.00, 0.00, 0.00, 0.00, 0.00, 0.00, 0.00, 0.00, 0.00, 0.00, 0.00, 0.00, 3197.60, 3196.80, 0.00, 0.00, 0.00, 0.00, 1, 0, 0, 0, '0000000000000000', '', '', '', '', '', '', '', '',
5185, 2023-11-14 03:28:15, 0, 420.00, 12.70, 50.00, 0.00, 152.40, 0.00, 0.00, 0.00, 0.00, 0.00, 0.00, 0.00, 0.00, 0.00, 0.00, 0.00, 0.00, 0.00, 0.00, 0.00, 0.00, 3197.50, 3196.70, 0.00, 0.00, 0.00, 0.00, 1, 0, 0, 0, '0000000000000000', '', '', '', '', '', '', '', '',
5401, 2023-11-14 03:53:01, 0, 420.00, 12.70, 50.00, 0.00, 152.40, 0.00, 0.00, 0.00, 0.00, 0.00, 0.00, 0.00, 0.00, 0.00, 0.00, 0.00, 0.00, 0.00, 0.00, 0.00, 0.00, 3197.40, 3196.70, 0.00, 0.00, 0.00, 0.00, 1, 0, 0, 0, '0000000000000000', '', '', '', '', '', '', '', '',
5617, 2023-11-14 04:17:47, 0, 420.00, 12.70, 50.00, 0.00, 152.40, 0.00, 0.00, 0.00, 0.00, 0.00, 0.00, 0.00, 0.00, 0.00, 0.00, 0.00, 0.00, 0.00, 0.00, 0.00, 0.00, 3197.30, 3196.50, 0.00, 0.00, 0.00, 0.00, 1, 0, 0, 0, '0000000000000000', '', '', '', '', '', '', '', '',
5833, 2023-11-14 04:42:33, 0, 420.00, 12.70, 50.00, 0.00, 152.40, 0.00, 0.00, 0.00, 0.00, 0.00, 0.00, 0.00, 0.00, 0.00, 0.00, 0.00, 0.00, 0.00, 0.00, 0.00, 0.00, 3197.20, 3196.50, 0.00, 0.00, 0.00, 0.00, 1, 0, 0, 0, '0000000000000000', '', '', '', '', '', '', '', '',
6049, 2023-11-14 05:07:19, 0, 420.00, 12.70, 50.00, 0.00, 152.40, 0.00, 0.00, 0.00, 0.00, 0.00, 0.00, 0.00, 0.00, 0.00, 0.00, 0.00, 0.00, 0.00, 0.00, 0.00, 0.00, 3197.20, 3196.30, 0.00, 0.00, 0.00, 0.00, 1, 0, 0, 0, '0000000000000000', '', '', '', '', '', '', '', '',
6265, 2023-11-14 05:32:05, 0, 420.00, 12.70, 50.00, 0.00, 152.40, 0.00, 0.00, 0.00, 0.00, 0.00, 0.00, 0.00, 0.00, 0.00, 0.00, 0.00, 0.00, 0.00, 0.00, 0.00, 0.00, 3197.10, 3196.30, 0.00, 0.00, 0.00, 0.00, 1, 0, 0, 0, '0000000000000000', '', '', '', '', '', '', '', '',
6481, 2023-11-14 05:56:51, 0, 420.00, 12.70, 50.00, 0.00, 152.40, 0.00, 0.00, 0.00, 0.00, 0.00, 0.00, 0.00, 0.00, 0.00, 0.00, 0.00, 0.00, 0.00, 0.00, 0.00, 0.00, 3197.00, 3196.30, 0.00, 0.00, 0.00, 0.00, 1, 0, 0, 0, '0000000000000000', '', '', '', '', '', '', '', '',
6697, 2023-11-14 06:21:37, 0, 420.00, 12.70, 50.00, 0.00, 152.40, 0.00, 0.00, 0.00, 0.00, 0.00, 0.00, 0.00, 0.00, 0.00, 0.00, 0.00, 0.00, 0.00, 0.00, 0.00, 0.00, 3196.90, 3196.10, 0.00, 0.00, 0.00, 0.00, 1, 0, 0, 0, '0000000000000000', '', '', '', '', '', '', '', '',
6913, 2023-11-14 06:46:23, 0, 420.00, 12.70, 50.00, 0.00, 152.40, 0.00, 0.00, 0.00, 0.00, 0.00, 0.00, 0.00, 0.00, 0.00, 0.00, 0.00, 0.00, 0.00, 0.00, 0.00, 0.00, 3196.80, 3196.00, 0.00, 0.00, 0.00, 0.00, 1, 0, 0, 0, '0000000000000000', '', '', '', '', '', '', '', '',
7129, 2023-11-14 07:11:10, 0, 420.00, 12.70, 50.00, 0.00, 152.40, 0.00, 0.00, 0.00, 0.00, 0.00, 0.00, 0.00, 0.00, 0.00, 0.00, 0.00, 0.00, 0.00, 0.00, 0.00, 0.00, 3196.70, 3196.10, 0.00, 0.00, 0.00, 0.00, 1, 0, 0, 0, '0000000000000000', '', '', '', '', '', '', '', '',
7345, 2023-11-14 07:35:56, 0, 420.00, 12.70, 50.00, 0.00, 152.40, 0.00, 0.00, 0.00, 0.00, 0.00, 0.00, 0.00, 0.00, 0.00, 0.00, 0.00, 0.00, 0.00, 0.00, 0.00, 0.00, 3196.70, 3195.90, 0.00, 0.00, 0.00, 0.00, 1, 0, 0, 0, '0000000000000000', '', '', '', '', '', '', '', '',
7561, 2023-11-14 08:00:42, 0, 420.00, 12.70, 50.00, 0.00, 152.40, 0.00, 0.00, 0.00, 0.00, 0.00, 0.00, 0.00, 0.00, 0.00, 0.00, 0.00, 0.00, 0.00, 0.00, 0.00, 0.00, 3196.60, 3195.80, 0.00, 0.00, 0.00, 0.00, 1, 0, 0, 0, '0000000000000000', '', '', '', '', '', '', '', '',
7777, 2023-11-14 08:25:28, 0, 420.00, 12.70, 50.00, 0.00, 152.40, 0.00, 0.00, 0.00, 0.00, 0.00, 0.00, 0.00, 0.00, 0.00, 0.00, 0.00, 0.00, 0.00, 0.00, 0.00, 0.00, 3196.60, 3195.90, 0.00, 0.00, 0.00, 0.00, 1, 0, 0, 0, '0000000000000000', '', '', '', '', '', '', '', '',
7993, 2023-11-14 08:50:14, 0, 0.00, 12.70, 50.00, 0.00, 152.40, 0.00, 0.00, 0.00, 0.00, 0.00, 0.00, 0.00, 0.00, 0.00, 0.00, 0.00, 0.00, 0.00, 0.00, 0.00, 0.00, 3196.40, 3195.80, 0.00, 0.00, 0.00, 0.00, 2, 0, 0, 0, '0000000000000000', '', '', '', '', '', '', '', '',
8034, 2023-11-14 08:54:56, 0, 0.00, 12.70, 50.00, 0.00, 152.40, 0.00, 0.00, 0.00, 0.00, 0.00, 0.00, 0.00, 0.00, 0.00, 0.00, 0.00, 0.00, 0.00, 0.00, 0.00, 0.00, 3196.50, 3195.70, 0.00, 0.00, 0.00, 0.00, 2, 0, 0, 0, '0000000000000000', '', '', '', '', '', '', '', '',